 c  number of layers, number of gases = 
100       44
  
 c layer thickness(m), temp(k), pressure(atm)
   229.63936          291.95279               1.07120
   231.50377          290.48703               1.04269
   233.37856          289.00183               1.01458
   235.26076          287.49673               0.98687
   237.15555          285.97137               0.95955
   239.05841          284.42542               0.93264
   240.97520          282.85834               0.90612
   242.91211          281.28174               0.88002
   244.88556          279.71088               0.85432
   246.86969          278.11932               0.82903
   248.86597          276.50562               0.80415
   250.88203          274.87820               0.77969
   252.93231          273.25430               0.75563
   254.99773          271.60889               0.73199
   257.07175          269.93979               0.70877
   259.17316          268.25824               0.68596
   261.32013          266.57968               0.66357
   263.48282          264.87741               0.64160
   265.65433          263.14978               0.62005
   267.86517          261.41574               0.59891
   270.11777          259.67856               0.57819
   272.37988          257.91501               0.55789
   274.65533          256.12601               0.53801
   276.99329          254.34090               0.51855
   279.35504          252.54013               0.49950
   281.73447          250.71114               0.48086
   284.13965          248.86398               0.46265
   286.60107          247.02101               0.44484
   289.08301          245.15051               0.42745
   291.58258          243.25055               0.41048
   294.13892          241.35492               0.39391
   296.74292          239.44427               0.37775
   299.35837          237.50130               0.36199
   302.01578          235.54298               0.34664
   304.72659          233.58325               0.33170
   307.47034          231.59001               0.31715
   310.24170          229.57545               0.30300
   313.12085          227.59012               0.28924
   316.04291          225.57707               0.27588
   318.98593          223.52925               0.26291
   321.98239          221.46376               0.25032
   325.00458          219.36473               0.23811
   328.20798          217.32407               0.22629
   333.79269          216.77338               0.21484
   340.37781          216.73972               0.20376
   347.18323          216.70740               0.19305
   354.27475          216.70000               0.18270
   361.62949          216.70003               0.17271
   369.25888          216.69997               0.16308
   377.16388          216.69998               0.15380
   385.38742          216.70003               0.14486
   393.91901          216.69998               0.13627
   402.78720          216.70000               0.12801
   412.02832          216.69997               0.12008
   421.64038          216.69995               0.11248
   431.67209          216.69997               0.10519
   442.11578          216.70001               0.09822
   453.03534          216.69995               0.09156
   464.45654          216.69997               0.08521
   476.38892          216.70000               0.07915
   488.90875          216.70000               0.07338
   502.01227          216.69997               0.06790
   515.79663          216.70001               0.06269
   530.26196          216.70003               0.05776
   545.92322          216.86407               0.05309
   563.26105          217.35535               0.04868
   581.73755          217.90034               0.04452
   601.36414          218.49117               0.04061
   622.21912          219.10327               0.03694
   644.42822          219.73659               0.03349
   668.10229          220.39282               0.03027
   693.38037          221.07285               0.02726
   720.40173          221.77129               0.02447
   749.36487          222.47960               0.02187
   780.47559          223.21350               0.01947
   814.02777          223.98024               0.01726
   850.41809          224.80936               0.01522
   889.88495          225.67888               0.01336
   933.05017          226.63579               0.01165
   981.06763          227.85262               0.01011
  1033.91650          229.15073               0.00871
  1095.32166          231.16301               0.00745
  1168.74695          234.36148               0.00632
  1250.87744          237.75119               0.00531
  1343.71570          241.34265               0.00443
  1448.94409          245.22385               0.00365
  1569.58008          249.40938               0.00297
  1708.80884          253.93872               0.00238
  1871.23877          258.85846               0.00189
  2062.29028          264.21310               0.00146
  2283.15723          269.42853               0.00111
  2506.14551          270.40253               0.00083
  2721.07690          266.40921               0.00060
  2964.90479          260.48608               0.00042
  3238.88403          252.31641               0.00028
  3571.95288          243.03098               0.00017
  4005.63428          232.75212               0.00010
  4582.62646          221.30843               0.00005
  5445.86963          209.97479               0.00003
  6909.19482          198.14107               0.00001
